 RMODE NFREQ    PERIOD(S) FREQUENCY(Hz)  C(KM/S)      U(KM/S)      ENERGY       GAMMA(1/KM)  ELLIPTICITY
    0     1   0.20029E-01   49.927      0.15180      0.49447       19894.       0.0000      0.10320    
    0     2   0.20034E-01   49.915      0.15181      0.49446       19889.       0.0000      0.10320    
    0     3   0.20039E-01   49.902      0.15181      0.49446       19884.       0.0000      0.10321    
    0     4   0.20044E-01   49.890      0.15181      0.49411       19873.       0.0000      0.10321    
    0     5   0.20049E-01   49.878      0.15181      0.49445       19873.       0.0000      0.10321    
    0     6   0.20054E-01   49.866      0.15181      0.49444       19868.       0.0000      0.10321    
    0     7   0.20059E-01   49.854      0.15181      0.49444       19863.       0.0000      0.10321    
    0     8   0.20064E-01   49.841      0.15182      0.49443       19857.       0.0000      0.10321    
    0     9   0.20069E-01   49.829      0.15182      0.49443       19852.       0.0000      0.10322    
    0    10   0.20074E-01   49.817      0.15182      0.49442       19847.       0.0000      0.10322    
    0    11   0.20078E-01   49.805      0.15182      0.49441       19842.       0.0000      0.10322    
    0    12   0.20083E-01   49.792      0.15182      0.49441       19836.       0.0000      0.10322    
    0    13   0.20088E-01   49.780      0.15183      0.49440       19831.       0.0000      0.10322    
    0    14   0.20093E-01   49.768      0.15183      0.49440       19826.       0.0000      0.10322    
    0    15   0.20098E-01   49.756      0.15183      0.49438       19820.       0.0000      0.10323    
    0    16   0.20103E-01   49.744      0.15183      0.49439       19815.       0.0000      0.10323    
    0    17   0.20108E-01   49.731      0.15183      0.49438       19810.       0.0000      0.10323    
    0    18   0.20113E-01   49.719      0.15184      0.49437       19805.       0.0000      0.10323    
    0    19   0.20118E-01   49.707      0.15184      0.49437       19800.       0.0000      0.10323    
    0    20   0.20123E-01   49.695      0.15184      0.49436       19794.       0.0000      0.10323    
    0    21   0.20128E-01   49.683      0.15184      0.49436       19789.       0.0000      0.10323    
    0    22   0.20133E-01   49.670      0.15184      0.49434       19784.       0.0000      0.10324    
    0    23   0.20138E-01   49.658      0.15185      0.49434       19778.       0.0000      0.10324    
    0    24   0.20143E-01   49.646      0.15185      0.49434       19773.       0.0000      0.10324    
    0    25   0.20148E-01   49.634      0.15185      0.49434       19768.       0.0000      0.10324    
    0    26   0.20153E-01   49.622      0.15185      0.49433       19763.       0.0000      0.10324    
    0    27   0.20157E-01   49.609      0.15185      0.49432       19758.       0.0000      0.10324    
    0    28   0.20162E-01   49.597      0.15186      0.49432       19752.       0.0000      0.10325    
    0    29   0.20167E-01   49.585      0.15186      0.49431       19747.       0.0000      0.10325    
    0    30   0.20172E-01   49.573      0.15186      0.49431       19742.       0.0000      0.10325    
    0    31   0.20177E-01   49.561      0.15186      0.49430       19737.       0.0000      0.10325    
    0    32   0.20182E-01   49.548      0.15186      0.49430       19731.       0.0000      0.10325    
    0    33   0.20187E-01   49.536      0.15187      0.49429       19726.       0.0000      0.10325    
    0    34   0.20192E-01   49.524      0.15187      0.49425       19720.       0.0000      0.10326    
    0    35   0.20197E-01   49.512      0.15187      0.49428       19716.       0.0000      0.10326    
    0    36   0.20202E-01   49.500      0.15187      0.49427       19710.       0.0000      0.10326    
    0    37   0.20207E-01   49.487      0.15187      0.49427       19705.       0.0000      0.10326    
    0    38   0.20212E-01   49.475      0.15188      0.49426       19700.       0.0000      0.10326    
    0    39   0.20217E-01   49.463      0.15188      0.49426       19695.       0.0000      0.10326    
    0    40   0.20222E-01   49.451      0.15188      0.49425       19689.       0.0000      0.10327    
    0    41   0.20227E-01   49.438      0.15188      0.49424       19684.       0.0000      0.10327    
    0    42   0.20232E-01   49.426      0.15188      0.49424       19679.       0.0000      0.10327    
    0    43   0.20237E-01   49.414      0.15189      0.49423       19674.       0.0000      0.10327    
    0    44   0.20242E-01   49.402      0.15189      0.49423       19668.       0.0000      0.10327    
    0    45   0.20247E-01   49.390      0.15189      0.49422       19663.       0.0000      0.10327    
    0    46   0.20252E-01   49.377      0.15189      0.49422       19658.       0.0000      0.10328    
    0    47   0.20257E-01   49.365      0.15189      0.49421       19653.       0.0000      0.10328    
    0    48   0.20262E-01   49.353      0.15190      0.49420       19647.       0.0000      0.10328    
    0    49   0.20267E-01   49.341      0.15190      0.49420       19642.       0.0000      0.10328    
    0    50   0.20272E-01   49.329      0.15190      0.49419       19637.       0.0000      0.10328    
    0    51   0.20277E-01   49.316      0.15190      0.49419       19632.       0.0000      0.10328    
    0    52   0.20282E-01   49.304      0.15190      0.49418       19626.       0.0000      0.10329    
    0    53   0.20287E-01   49.292      0.15191      0.49417       19621.       0.0000      0.10329    
    0    54   0.20292E-01   49.280      0.15191      0.49417       19616.       0.0000      0.10329    
    0    55   0.20297E-01   49.268      0.15191      0.49416       19611.       0.0000      0.10329    
    0    56   0.20302E-01   49.255      0.15191      0.49416       19605.       0.0000      0.10329    
    0    57   0.20307E-01   49.243      0.15191      0.49415       19600.       0.0000      0.10329    
    0    58   0.20312E-01   49.231      0.15192      0.49415       19595.       0.0000      0.10330    
    0    59   0.20317E-01   49.219      0.15192      0.49384       19585.       0.0000      0.10330    
    0    60   0.20322E-01   49.207      0.15192      0.49414       19584.       0.0000      0.10330    
    0    61   0.20328E-01   49.194      0.15192      0.49413       19579.       0.0000      0.10330    
    0    62   0.20333E-01   49.182      0.15192      0.49412       19574.       0.0000      0.10330    
    0    63   0.20338E-01   49.170      0.15193      0.49412       19569.       0.0000      0.10331    
    0    64   0.20343E-01   49.158      0.15193      0.49411       19563.       0.0000      0.10331    
    0    65   0.20348E-01   49.146      0.15193      0.49410       19558.       0.0000      0.10331    
    0    66   0.20353E-01   49.133      0.15193      0.49409       19553.       0.0000      0.10331    
    0    67   0.20358E-01   49.121      0.15193      0.49409       19548.       0.0000      0.10331    
    0    68   0.20363E-01   49.109      0.15194      0.49409       19542.       0.0000      0.10331    
    0    69   0.20368E-01   49.097      0.15194      0.49408       19537.       0.0000      0.10332    
    0    70   0.20373E-01   49.084      0.15194      0.49406       19532.       0.0000      0.10332    
    0    71   0.20378E-01   49.072      0.15194      0.49407       19526.       0.0000      0.10332    
    0    72   0.20383E-01   49.060      0.15194      0.49405       19521.       0.0000      0.10332    
    0    73   0.20388E-01   49.048      0.15195      0.49406       19516.       0.0000      0.10332    
    0    74   0.20393E-01   49.036      0.15195      0.49405       19511.       0.0000      0.10332    
    0    75   0.20398E-01   49.023      0.15195      0.49405       19505.       0.0000      0.10333    
    0    76   0.20403E-01   49.011      0.15195      0.49404       19500.       0.0000      0.10333    
    0    77   0.20409E-01   48.999      0.15196      0.49404       19495.       0.0000      0.10333    
    0    78   0.20414E-01   48.987      0.15196      0.49403       19490.       0.0000      0.10333    
    0    79   0.20419E-01   48.975      0.15196      0.49398       19484.       0.0000      0.10333    
    0    80   0.20424E-01   48.962      0.15196      0.49402       19479.       0.0000      0.10333    
    0    81   0.20429E-01   48.950      0.15196      0.49387       19472.       0.0000      0.10334    
    0    82   0.20434E-01   48.938      0.15197      0.49401       19469.       0.0000      0.10334    
    0    83   0.20439E-01   48.926      0.15197      0.49400       19463.       0.0000      0.10334    
    0    84   0.20444E-01   48.914      0.15197      0.49399       19458.       0.0000      0.10334    
    0    85   0.20449E-01   48.901      0.15197      0.49399       19453.       0.0000      0.10334    
    0    86   0.20454E-01   48.889      0.15197      0.49398       19448.       0.0000      0.10334    
    0    87   0.20460E-01   48.877      0.15198      0.49398       19442.       0.0000      0.10335    
    0    88   0.20465E-01   48.865      0.15198      0.49397       19437.       0.0000      0.10335    
    0    89   0.20470E-01   48.853      0.15198      0.49396       19432.       0.0000      0.10335    
    0    90   0.20475E-01   48.840      0.15198      0.49396       19427.       0.0000      0.10335    
    0    91   0.20480E-01   48.828      0.15198      0.49395       19421.       0.0000      0.10335    
    0    92   0.20485E-01   48.816      0.15199      0.49395       19416.       0.0000      0.10335    
    0    93   0.20490E-01   48.804      0.15199      0.49394       19411.       0.0000      0.10336    
    0    94   0.20495E-01   48.792      0.15199      0.49393       19406.       0.0000      0.10336    
    0    95   0.20500E-01   48.779      0.15199      0.49393       19400.       0.0000      0.10336    
    0    96   0.20506E-01   48.767      0.15199      0.49392       19395.       0.0000      0.10336    
    0    97   0.20511E-01   48.755      0.15200      0.49392       19390.       0.0000      0.10336    
    0    98   0.20516E-01   48.743      0.15200      0.49391       19385.       0.0000      0.10337    
    0    99   0.20521E-01   48.730      0.15200      0.49390       19379.       0.0000      0.10337    
    0   100   0.20526E-01   48.718      0.15200      0.49390       19374.       0.0000      0.10337    
    0   101   0.20531E-01   48.706      0.15201      0.49388       19369.       0.0000      0.10337    
    0   102   0.20536E-01   48.694      0.15201      0.49389       19363.       0.0000      0.10337    
    0   103   0.20542E-01   48.682      0.15201      0.49388       19358.       0.0000      0.10337    
    0   104   0.20547E-01   48.669      0.15201      0.49387       19353.       0.0000      0.10338    
    0   105   0.20552E-01   48.657      0.15201      0.49387       19348.       0.0000      0.10338    
    0   106   0.20557E-01   48.645      0.15202      0.49386       19342.       0.0000      0.10338    
    0   107   0.20562E-01   48.633      0.15202      0.49386       19337.       0.0000      0.10338    
    0   108   0.20567E-01   48.621      0.15202      0.49385       19332.       0.0000      0.10338    
    0   109   0.20573E-01   48.608      0.15202      0.49384       19327.       0.0000      0.10338    
    0   110   0.20578E-01   48.596      0.15202      0.49383       19321.       0.0000      0.10339    
    0   111   0.20583E-01   48.584      0.15203      0.49383       19316.       0.0000      0.10339    
    0   112   0.20588E-01   48.572      0.15203      0.49371       19309.       0.0000      0.10339    
    0   113   0.20593E-01   48.560      0.15203      0.49382       19306.       0.0000      0.10339    
    0   114   0.20598E-01   48.547      0.15203      0.49380       19300.       0.0000      0.10339    
    0   115   0.20604E-01   48.535      0.15204      0.49381       19295.       0.0000      0.10340    
    0   116   0.20609E-01   48.523      0.15204      0.49380       19290.       0.0000      0.10340    
    0   117   0.20614E-01   48.511      0.15204      0.49379       19284.       0.0000      0.10340    
    0   118   0.20619E-01   48.499      0.15204      0.49379       19279.       0.0000      0.10340    
    0   119   0.20624E-01   48.486      0.15204      0.49378       19274.       0.0000      0.10340    
    0   120   0.20630E-01   48.474      0.15205      0.49377       19269.       0.0000      0.10340    
    0   121   0.20635E-01   48.462      0.15205      0.49377       19264.       0.0000      0.10341    
    0   122   0.20640E-01   48.450      0.15205      0.49375       19258.       0.0000      0.10341    
    0   123   0.20645E-01   48.438      0.15205      0.49376       19253.       0.0000      0.10341    
    0   124   0.20650E-01   48.425      0.15205      0.49375       19248.       0.0000      0.10341    
    0   125   0.20656E-01   48.413      0.15206      0.49367       19241.       0.0000      0.10341    
    0   126   0.20661E-01   48.401      0.15206      0.49374       19237.       0.0000      0.10341    
    0   127   0.20666E-01   48.389      0.15206      0.49372       19232.       0.0000      0.10342    
    0   128   0.20671E-01   48.376      0.15206      0.49373       19227.       0.0000      0.10342    
    0   129   0.20676E-01   48.364      0.15207      0.49372       19221.       0.0000      0.10342    
    0   130   0.20682E-01   48.352      0.15207      0.49361       19214.       0.0000      0.10342    
    0   131   0.20687E-01   48.340      0.15207      0.49371       19211.       0.0000      0.10342    
    0   132   0.20692E-01   48.328      0.15207      0.49370       19206.       0.0000      0.10343    
    0   133   0.20697E-01   48.315      0.15207      0.49370       19200.       0.0000      0.10343    
    0   134   0.20703E-01   48.303      0.15208      0.49368       19195.       0.0000      0.10343    
    0   135   0.20708E-01   48.291      0.15208      0.49368       19190.       0.0000      0.10343    
    0   136   0.20713E-01   48.279      0.15208      0.49367       19184.       0.0000      0.10343    
    0   137   0.20718E-01   48.267      0.15208      0.49367       19179.       0.0000      0.10343    
    0   138   0.20724E-01   48.254      0.15208      0.49367       19174.       0.0000      0.10344    
    0   139   0.20729E-01   48.242      0.15209      0.49366       19169.       0.0000      0.10344    
    0   140   0.20734E-01   48.230      0.15209      0.49364       19163.       0.0000      0.10344    
    0   141   0.20739E-01   48.218      0.15209      0.49365       19158.       0.0000      0.10344    
    0   142   0.20744E-01   48.206      0.15209      0.49239       19133.       0.0000      0.10344    
    0   143   0.20750E-01   48.193      0.15210      0.49363       19148.       0.0000      0.10345    
    0   144   0.20755E-01   48.181      0.15210      0.49363       19142.       0.0000      0.10345    
    0   145   0.20760E-01   48.169      0.15210      0.49362       19137.       0.0000      0.10345    
    0   146   0.20766E-01   48.157      0.15210      0.49361       19132.       0.0000      0.10345    
    0   147   0.20771E-01   48.145      0.15210      0.49361       19127.       0.0000      0.10345    
    0   148   0.20776E-01   48.132      0.15211      0.49360       19121.       0.0000      0.10345    
    0   149   0.20781E-01   48.120      0.15211      0.49360       19116.       0.0000      0.10346    
    0   150   0.20787E-01   48.108      0.15211      0.49359       19111.       0.0000      0.10346    
    0   151   0.20792E-01   48.096      0.15211      0.49358       19105.       0.0000      0.10346    
    0   152   0.20797E-01   48.083      0.15212      0.49358       19100.       0.0000      0.10346    
    0   153   0.20802E-01   48.071      0.15212      0.49357       19095.       0.0000      0.10346    
    0   154   0.20808E-01   48.059      0.15212      0.49356       19090.       0.0000      0.10347    
    0   155   0.20813E-01   48.047      0.15212      0.49354       19084.       0.0000      0.10347    
    0   156   0.20818E-01   48.035      0.15212      0.49355       19079.       0.0000      0.10347    
    0   157   0.20824E-01   48.022      0.15213      0.49355       19074.       0.0000      0.10347    
    0   158   0.20829E-01   48.010      0.15213      0.42933       17895.       0.0000      0.10348    
    0   159   0.20834E-01   47.998      0.15213      0.49353       19063.       0.0000      0.10348    
    0   160   0.20839E-01   47.986      0.15213      0.49353       19058.       0.0000      0.10348    
    0   161   0.20845E-01   47.974      0.15214      0.49352       19053.       0.0000      0.10348    
    0   162   0.20850E-01   47.961      0.15214      0.49349       19047.       0.0000      0.10348    
    0   163   0.20855E-01   47.949      0.15214      0.49349       19042.       0.0000      0.10348    
    0   164   0.20861E-01   47.937      0.15214      0.49350       19037.       0.0000      0.10348    
    0   165   0.20866E-01   47.925      0.15214      0.49350       19032.       0.0000      0.10349    
    0   166   0.20871E-01   47.913      0.15215      0.49349       19027.       0.0000      0.10349    
    0   167   0.20877E-01   47.900      0.15215      0.49347       19021.       0.0000      0.10349    
    0   168   0.20882E-01   47.888      0.15215      0.49348       19016.       0.0000      0.10349    
    0   169   0.20887E-01   47.876      0.15215      0.49347       19011.       0.0000      0.10349    
    0   170   0.20893E-01   47.864      0.15216      0.49346       19005.       0.0000      0.10350    
    0   171   0.20898E-01   47.852      0.15216      0.49346       19000.       0.0000      0.10350    
    0   172   0.20903E-01   47.839      0.15216      0.49345       18995.       0.0000      0.10350    
    0   173   0.20909E-01   47.827      0.15216      0.49344       18990.       0.0000      0.10350    
    0   174   0.20914E-01   47.815      0.15216      0.49344       18984.       0.0000      0.10350    
    0   175   0.20919E-01   47.803      0.15217      0.49330       18977.       0.0000      0.10350    
    0   176   0.20925E-01   47.791      0.15217      0.49343       18974.       0.0000      0.10351    
    0   177   0.20930E-01   47.778      0.15217      0.49336       18968.       0.0000      0.10351    
    0   178   0.20935E-01   47.766      0.15217      0.49341       18963.       0.0000      0.10351    
    0   179   0.20941E-01   47.754      0.15218      0.49341       18958.       0.0000      0.10351    
    0   180   0.20946E-01   47.742      0.15218      0.49300       18946.       0.0000      0.10351    
    0   181   0.20951E-01   47.729      0.15218      0.49339       18947.       0.0000      0.10352    
    0   182   0.20957E-01   47.717      0.15218      0.49339       18942.       0.0000      0.10352    
    0   183   0.20962E-01   47.705      0.15218      0.49338       18937.       0.0000      0.10352    
    0   184   0.20967E-01   47.693      0.15219      0.49337       18932.       0.0000      0.10352    
    0   185   0.20973E-01   47.681      0.15219      0.49337       18926.       0.0000      0.10352    
    0   186   0.20978E-01   47.668      0.15219      0.49336       18921.       0.0000      0.10353    
    0   187   0.20984E-01   47.656      0.15219      0.49335       18916.       0.0000      0.10353    
    0   188   0.20989E-01   47.644      0.15220      0.49334       18910.       0.0000      0.10353    
    0   189   0.20994E-01   47.632      0.15220      0.49334       18905.       0.0000      0.10353    
    0   190   0.21000E-01   47.620      0.15220      0.49331       18900.       0.0000      0.10353    
    0   191   0.21005E-01   47.607      0.15220      0.49333       18895.       0.0000      0.10354    
